#NUMBER OF AGES=15
#----------------------------------------------------       
#MIX-LEN  Y      Z          Zeff        [Fe/H] [a/Fe]       
# 1.9380  0.2553 6.5808E-03 6.5808E-03  -0.40   0.00        
#----------------------------------------------------       
#**PHOTOMETRIC SYSTEM**: SDSS (AB)                          
#----------------------------------------------------       
#AGE= 0.010 BINS=148 Power-law IMF: x=-2.350
# N  sdss_r       Log10(N)       Log10(dN)
  1 -3.257         1.3890         1.3890
  2 -3.157         1.6924         1.3937
  3 -3.057         1.8677         1.3890
  4 -2.957         1.9880         1.3720
  5 -2.857         2.0621         1.2577
  6 -2.757         2.1126         1.1525
  7 -2.657         2.1613         1.1868
  8 -2.557         2.2206         1.3266
  9 -2.457         2.2957         1.4968
 10 -2.357         2.3829         1.6426
 11 -2.257         2.4552         1.6412
 12 -2.157         2.5098         1.5821
 13 -2.057         2.5524         1.5226
 14 -1.957         2.5861         1.4601
 15 -1.857         2.6132         1.3947
 16 -1.757         2.6351         1.3265
 17 -1.657         2.6543         1.2903
 18 -1.557         2.6692         1.1976
 19 -1.457         2.6815         1.1256
 20 -1.357         2.6918         1.0631
 21 -1.257         2.7008         1.0120
 22 -1.157         2.7093         0.9960
 23 -1.057         2.7177         0.9991
 24 -0.957         2.7264         1.0256
 25 -0.857         2.7361         1.0797
 26 -0.757         2.7520         1.3077
 27 -0.657         2.7740         1.4670
 28 -0.557         2.7947         1.4627
 29 -0.457         2.8134         1.4397
 30 -0.357         2.8544         1.8085
 31 -0.257         2.8926         1.8187
 32 -0.157         2.9241         1.7689
 33 -0.057         2.9538         1.7735
 34  0.043         2.9844         1.8176
 35  0.143         3.0167         1.8720
 36  0.243         3.0466         1.8694
 37  0.343         3.0767         1.9018
 38  0.443         3.1058         1.9173
 39  0.543         3.2151         2.5626
 40  0.643         3.2426         2.0296
 41  0.743         3.2673         2.0105
 42  0.843         3.2896         1.9896
 43  0.943         3.3135         2.0422
 44  1.043         3.3405         2.1196
 45  1.143         3.3740         2.2445
 46  1.243         3.3840         1.7446
 47  1.343         3.4039         2.0550
 48  1.443         3.4236         2.0705
 49  1.543         3.4431         2.0856
 50  1.643         3.4624         2.1000
 51  1.743         3.4815         2.1148
 52  1.843         3.5004         2.1292
 53  1.943         3.5191         2.1454
 54  2.043         3.5378         2.1620
 55  2.143         3.5561         2.1713
 56  2.243         3.5745         2.1932
 57  2.343         3.5929         2.2095
 58  2.443         3.6110         2.2234
 59  2.543         3.6290         2.2378
 60  2.643         3.6469         2.2524
 61  2.743         3.6647         2.2682
 62  2.843         3.6824         2.2847
 63  2.943         3.7002         2.3021
 64  3.043         3.7179         2.3203
 65  3.143         3.7357         2.3402
 66  3.243         3.7536         2.3588
 67  3.343         3.7708         2.3592
 68  3.443         3.7878         2.3729
 69  3.543         3.8050         2.3930
 70  3.643         3.8233         2.4402
 71  3.743         3.8404         2.4271
 72  3.843         3.8581         2.4604
 73  3.943         3.8757         2.4741
 74  4.043         3.8941         2.5108
 75  4.143         3.9109         2.4900
 76  4.243         3.9255         2.4466
 77  4.343         3.9392         2.4294
 78  4.443         3.9506         2.3668
 79  4.543         3.9621         2.3768
 80  4.643         3.9735         2.3871
 81  4.743         3.9849         2.3977
 82  4.843         3.9962         2.4086
 83  4.943         4.0076         2.4197
 84  5.043         4.0190         2.4312
 85  5.143         4.0304         2.4431
 86  5.243         4.0417         2.4541
 87  5.343         4.0531         2.4639
 88  5.443         4.0643         2.4725
 89  5.543         4.0749         2.4557
 90  5.643         4.0854         2.4637
 91  5.743         4.0959         2.4726
 92  5.843         4.1063         2.4817
 93  5.943         4.1167         2.4909
 94  6.043         4.1271         2.5001
 95  6.143         4.1374         2.5094
 96  6.243         4.1477         2.5187
 97  6.343         4.1580         2.5280
 98  6.443         4.1683         2.5371
 99  6.543         4.1786         2.5462
100  6.643         4.1888         2.5553
101  6.743         4.1990         2.5643
102  6.843         4.2091         2.5732
103  6.943         4.2181         2.5308
104  7.043         4.2249         2.4116
105  7.143         4.2313         2.4000
106  7.243         4.2378         2.4074
107  7.343         4.2446         2.4338
108  7.443         4.2517         2.4664
109  7.543         4.2593         2.4957
110  7.643         4.2670         2.5112
111  7.743         4.2724         2.3655
112  7.843         4.2891         2.8663
113  7.943         4.3085         2.9489
114  8.043         4.3260         2.9211
115  8.143         4.3466         3.0135
116  8.243         4.3695         3.0808
117  8.343         4.3929         3.1110
118  8.443         4.4165         3.1412
119  8.543         4.4410         3.1791
120  8.643         4.4653         3.2007
121  8.743         4.4893         3.2214
122  8.843         4.5131         3.2397
123  8.943         4.5364         3.2541
124  9.043         4.5591         3.2654
125  9.143         4.5810         3.2729
126  9.243         4.6018         3.2731
127  9.343         4.6214         3.2651
128  9.443         4.6397         3.2563
129  9.543         4.6571         3.2496
130  9.643         4.6737         3.2470
131  9.743         4.6898         3.2520
132  9.843         4.7061         3.2718
133  9.943         4.7232         3.3117
134 10.043         4.7381         3.2642
135 10.143         4.7540         3.3115
136 10.243         4.7710         3.3543
137 10.343         4.7883         3.3794
138 10.443         4.8060         3.4066
139 10.543         4.8241         3.4357
140 10.643         4.8427         3.4661
141 10.743         4.8618         3.4950
142 10.843         4.8812         3.5222
143 10.943         4.9009         3.5475
144 11.043         4.9208         3.5711
145 11.143         4.9407         3.5926
146 11.243         4.9606         3.6121
147 11.343         4.9804         3.6293
148 11.443         5.0000         3.6441


#AGE= 0.100 BINS=144 Power-law IMF: x=-2.350
# N  sdss_r       Log10(N)       Log10(dN)
  1 -2.752         1.4132         1.4132
  2 -2.652         1.7183         1.4213
  3 -2.552         1.8946         1.4179
  4 -2.452         2.0150         1.3993
  5 -2.352         2.0874         1.2733
  6 -2.252         2.1369         1.1697
  7 -2.152         2.1890         1.2419
  8 -2.052         2.2584         1.4279
  9 -1.952         2.3500         1.6290
 10 -1.852         2.4377         1.7000
 11 -1.752         2.5005         1.6290
 12 -1.652         2.5471         1.5555
 13 -1.552         2.5827         1.4787
 14 -1.452         2.6118         1.4225
 15 -1.352         2.6339         1.3296
 16 -1.252         2.6511         1.2412
 17 -1.152         2.6649         1.1590
 18 -1.052         2.6762         1.0855
 19 -0.952         2.6863         1.0468
 20 -0.852         2.6954         1.0135
 21 -0.752         2.7044         1.0194
 22 -0.652         2.7138         1.0411
 23 -0.552         2.7236         1.0724
 24 -0.452         2.7348         1.1421
 25 -0.352         2.7477         1.2127
 26 -0.252         2.7871         1.7252
 27 -0.152         2.8340         1.8444
 28 -0.052         2.8711         1.7839
 29  0.048         2.9065         1.8002
 30  0.148         2.9424         1.8425
 31  0.248         2.9796         1.8937
 32  0.348         3.0136         1.8906
 33  0.448         3.0471         1.9168
 34  0.548         3.0793         1.9336
 35  0.648         3.1518         2.3386
 36  0.748         3.1834         2.0307
 37  0.848         3.2121         2.0178
 38  0.948         3.2384         2.0068
 39  1.048         3.2688         2.0990
 40  1.148         3.3042         2.1981
 41  1.248         3.3396         2.2326
 42  1.348         3.3621         2.0663
 43  1.448         3.3831         2.0556
 44  1.548         3.4036         2.0691
 45  1.648         3.4239         2.0825
 46  1.748         3.4439         2.0967
 47  1.848         3.4637         2.1123
 48  1.948         3.4828         2.1182
 49  2.048         3.5026         2.1506
 50  2.148         3.5222         2.1669
 51  2.248         3.5416         2.1829
 52  2.348         3.5608         2.1966
 53  2.448         3.5797         2.2091
 54  2.548         3.5984         2.2223
 55  2.648         3.6169         2.2362
 56  2.748         3.6352         2.2509
 57  2.848         3.6534         2.2664
 58  2.948         3.6715         2.2826
 59  3.048         3.6895         2.2997
 60  3.148         3.7076         2.3176
 61  3.248         3.7257         2.3367
 62  3.348         3.7436         2.3495
 63  3.448         3.7610         2.3541
 64  3.548         3.7782         2.3686
 65  3.648         3.7958         2.3951
 66  3.748         3.8143         2.4333
 67  3.848         3.8311         2.4122
 68  3.948         3.8477         2.4218
 69  4.048         3.8646         2.4455
 70  4.148         3.8832         2.5051
 71  4.248         3.8990         2.4519
 72  4.348         3.9138         2.4397
 73  4.448         3.9260         2.3674
 74  4.548         3.9377         2.3628
 75  4.648         3.9494         2.3727
 76  4.748         3.9610         2.3828
 77  4.848         3.9726         2.3931
 78  4.948         3.9841         2.4036
 79  5.048         3.9957         2.4144
 80  5.148         4.0072         2.4254
 81  5.248         4.0187         2.4368
 82  5.348         4.0302         2.4476
 83  5.448         4.0417         2.4575
 84  5.548         4.0531         2.4662
 85  5.648         4.0640         2.4574
 86  5.748         4.0747         2.4628
 87  5.848         4.0854         2.4716
 88  5.948         4.0961         2.4804
 89  6.048         4.1067         2.4893
 90  6.148         4.1172         2.4982
 91  6.248         4.1278         2.5071
 92  6.348         4.1383         2.5160
 93  6.448         4.1487         2.5250
 94  6.548         4.1591         2.5339
 95  6.648         4.1695         2.5427
 96  6.748         4.1799         2.5516
 97  6.848         4.1902         2.5604
 98  6.948         4.2004         2.5692
 99  7.048         4.2107         2.5779
100  7.148         4.2207         2.5773
101  7.248         4.2271         2.3979
102  7.348         4.2333         2.3786
103  7.448         4.2394         2.3904
104  7.548         4.2461         2.4301
105  7.648         4.2533         2.4681
106  7.748         4.2595         2.4110
107  7.848         4.2648         2.3487
108  7.948         4.2719         2.4796
109  8.048         4.2811         2.6059
110  8.148         4.3012         2.9548
111  8.248         4.3233         3.0197
112  8.348         4.3471         3.0742
113  8.448         4.3713         3.1048
114  8.548         4.3963         3.1449
115  8.648         4.4219         3.1795
116  8.748         4.4474         3.2039
117  8.848         4.4728         3.2271
118  8.948         4.4980         3.2478
119  9.048         4.5226         3.2643
120  9.148         4.5466         3.2772
121  9.248         4.5698         3.2857
122  9.348         4.5919         3.2885
123  9.448         4.6126         3.2800
124  9.548         4.6318         3.2671
125  9.648         4.6497         3.2565
126  9.748         4.6667         3.2513
127  9.848         4.6833         3.2576
128  9.948         4.7006         3.2918
129 10.048         4.7169         3.2815
130 10.148         4.7322         3.2717
131 10.248         4.7493         3.3366
132 10.348         4.7666         3.3589
133 10.448         4.7842         3.3833
134 10.548         4.8022         3.4098
135 10.648         4.8206         3.4384
136 10.748         4.8395         3.4690
137 10.848         4.8589         3.4991
138 10.948         4.8787         3.5273
139 11.048         4.8987         3.5536
140 11.148         4.9190         3.5780
141 11.248         4.9394         3.6003
142 11.348         4.9597         3.6206
143 11.448         4.9800         3.6385
144 11.548         5.0000         3.6538


#AGE= 1.000 BINS=136 Power-law IMF: x=-2.350
# N  sdss_r       Log10(N)       Log10(dN)
  1 -0.907        -0.0343        -0.0343
  2 -0.807         0.2655        -0.0366
  3 -0.707         0.4408        -0.0379
  4 -0.607         0.5649        -0.0399
  5 -0.507         0.6618        -0.0373
  6 -0.407         0.7408        -0.0378
  7 -0.307         0.8083        -0.0338
  8 -0.207         0.8674        -0.0284
  9 -0.107         0.9190        -0.0311
 10 -0.007         0.9651        -0.0316
 11  0.093         1.0065        -0.0355
 12  0.193         1.0436        -0.0434
 13  0.293         1.0772        -0.0505
 14  0.393         1.1082        -0.0533
 15  0.493         1.1368        -0.0595
 16  0.593         1.3572         0.9572
 17  0.693         1.4325         0.6344
 18  0.793         1.4755         0.4500
 19  0.893         1.7048         1.3178
 20  0.993         1.9642         1.6171
 21  1.093         2.1450         1.6771
 22  1.193         2.2813         1.7116
 23  1.293         2.3870         1.7216
 24  1.393         2.4769         1.7489
 25  1.493         2.5560         1.7774
 26  1.593         2.6283         1.8142
 27  1.693         2.6942         1.8426
 28  1.793         2.7519         1.8467
 29  1.893         2.8087         1.8971
 30  1.993         2.8633         1.9358
 31  2.093         2.9138         1.9544
 32  2.193         2.9617         1.9809
 33  2.293         3.0073         2.0054
 34  2.393         3.0501         2.0230
 35  2.493         3.0898         2.0304
 36  2.593         3.1266         2.0365
 37  2.693         3.1604         2.0351
 38  2.793         3.1928         2.0492
 39  2.893         3.2238         2.0624
 40  2.993         3.2536         2.0749
 41  3.093         3.2822         2.0870
 42  3.193         3.3098         2.0985
 43  3.293         3.3363         2.1094
 44  3.393         3.3619         2.1197
 45  3.493         3.3866         2.1295
 46  3.593         3.4105         2.1386
 47  3.693         3.4336         2.1471
 48  3.793         3.4558         2.1549
 49  3.893         3.4775         2.1648
 50  3.993         3.4985         2.1726
 51  4.093         3.5189         2.1797
 52  4.193         3.5371         2.1502
 53  4.293         3.5566         2.2006
 54  4.393         3.5758         2.2108
 55  4.493         3.5947         2.2238
 56  4.593         3.6132         2.2348
 57  4.693         3.6316         2.2473
 58  4.793         3.6494         2.2534
 59  4.893         3.6703         2.3421
 60  4.993         3.6907         2.3534
 61  5.093         3.7093         2.3307
 62  5.193         3.7263         2.3124
 63  5.293         3.7423         2.2985
 64  5.393         3.7573         2.2890
 65  5.493         3.7717         2.2838
 66  5.593         3.7855         2.2826
 67  5.693         3.7990         2.2853
 68  5.793         3.8123         2.2914
 69  5.893         3.8255         2.3007
 70  5.993         3.8386         2.3125
 71  6.093         3.8515         2.3170
 72  6.193         3.8640         2.3178
 73  6.293         3.8762         2.3196
 74  6.393         3.8882         2.3224
 75  6.493         3.9000         2.3261
 76  6.593         3.9114         2.3275
 77  6.693         3.9227         2.3325
 78  6.793         3.9339         2.3393
 79  6.893         3.9450         2.3452
 80  6.993         3.9565         2.3762
 81  7.093         3.9692         2.4292
 82  7.193         3.9828         2.4715
 83  7.293         3.9969         2.5003
 84  7.393         4.0110         2.5166
 85  7.493         4.0248         2.5204
 86  7.593         4.0379         2.5102
 87  7.693         4.0499         2.4843
 88  7.793         4.0611         2.4666
 89  7.893         4.0721         2.4713
 90  7.993         4.0834         2.4935
 91  8.093         4.0949         2.5105
 92  8.193         4.1050         2.4661
 93  8.293         4.1172         2.5600
 94  8.393         4.1295         2.5761
 95  8.493         4.1421         2.5991
 96  8.593         4.1550         2.6191
 97  8.693         4.1679         2.6352
 98  8.793         4.1810         2.6530
 99  8.893         4.1944         2.6784
100  8.993         4.2084         2.7085
101  9.093         4.2228         2.7359
102  9.193         4.2375         2.7624
103  9.293         4.2530         2.7961
104  9.393         4.2688         2.8226
105  9.493         4.2852         2.8532
106  9.593         4.3024         2.8926
107  9.693         4.3205         2.9315
108  9.793         4.3395         2.9712
109  9.893         4.3595         3.0119
110  9.993         4.3811         3.0670
111 10.093         4.4035         3.1044
112 10.193         4.4243         3.0951
113 10.293         4.4437         3.0849
114 10.393         4.4645         3.1341
115 10.493         4.4875         3.2002
116 10.593         4.5122         3.2544
117 10.693         4.5378         3.2947
118 10.793         4.5628         3.3120
119 10.893         4.5876         3.3319
120 10.993         4.6124         3.3554
121 11.093         4.6370         3.3788
122 11.193         4.6616         3.4020
123 11.293         4.6861         3.4251
124 11.393         4.7105         3.4479
125 11.493         4.7348         3.4705
126 11.593         4.7590         3.4927
127 11.693         4.7830         3.5141
128 11.793         4.8069         3.5362
129 11.893         4.8308         3.5593
130 11.993         4.8547         3.5835
131 12.093         4.8787         3.6088
132 12.193         4.9028         3.6353
133 12.293         4.9271         3.6620
134 12.393         4.9514         3.6877
135 12.493         4.9757         3.7121
136 12.593         5.0000         3.7352


#AGE= 2.000 BINS=152 Power-law IMF: x=-2.350
# N  sdss_r       Log10(N)       Log10(dN)
  1 -2.207        -0.3261        -0.3261
  2 -2.107        -0.0250        -0.3260
  3 -2.007         0.1562        -0.3108
  4 -1.907         0.2892        -0.2896
  5 -1.807         0.3952        -0.2691
  6 -1.707         0.4860        -0.2386
  7 -1.607         0.5657        -0.2095
  8 -1.507         0.6365        -0.1861
  9 -1.407         0.7008        -0.1605
 10 -1.307         0.7603        -0.1329
 11 -1.207         0.8159        -0.1040
 12 -1.107         0.8684        -0.0755
 13 -1.007         0.9183        -0.0458
 14 -0.907         0.9662        -0.0151
 15 -0.807         1.0123         0.0154
 16 -0.707         1.0564         0.0417
 17 -0.607         1.0967         0.0436
 18 -0.507         1.1348         0.0588
 19 -0.407         1.1737         0.1069
 20 -0.307         1.2121         0.1395
 21 -0.207         1.2477         0.1437
 22 -0.107         1.2788         0.1188
 23 -0.007         1.4540         0.9751
 24  0.093         1.5166         0.6441
 25  0.193         1.5491         0.4075
 26  0.293         1.5784         0.3929
 27  0.393         1.6043         0.3677
 28  0.493         1.6276         0.3450
 29  0.593         1.6491         0.3336
 30  0.693         1.6697         0.3342
 31  0.793         1.6892         0.3316
 32  0.893         1.7077         0.3283
 33  0.993         1.7253         0.3236
 34  1.093         1.7420         0.3190
 35  1.193         1.7579         0.3147
 36  1.293         1.7731         0.3085
 37  1.393         1.7875         0.3018
 38  1.493         1.8013         0.2968
 39  1.593         1.9159         1.2811
 40  1.693         1.9305         0.4501
 41  1.793         1.9542         0.6804
 42  1.893         2.0817         1.4873
 43  1.993         2.2678         1.8101
 44  2.093         2.4060         1.8412
 45  2.193         2.5102         1.8392
 46  2.293         2.5972         1.8563
 47  2.393         2.6689         1.8509
 48  2.493         2.7325         1.8671
 49  2.593         2.7914         1.8942
 50  2.693         2.8455         1.9142
 51  2.793         2.8958         1.9351
 52  2.893         2.9433         1.9589
 53  2.993         2.9874         1.9722
 54  3.093         3.0258         1.9532
 55  3.193         3.0618         1.9619
 56  3.293         3.0969         1.9868
 57  3.393         3.1323         2.0269
 58  3.493         3.1655         2.0312
 59  3.593         3.1968         2.0392
 60  3.693         3.2267         2.0507
 61  3.793         3.2555         2.0625
 62  3.893         3.2887         2.1548
 63  3.993         3.3164         2.1081
 64  4.093         3.3434         2.1227
 65  4.193         3.3677         2.1048
 66  4.293         3.3908         2.1040
 67  4.393         3.4134         2.1188
 68  4.493         3.4333         2.0843
 69  4.593         3.4547         2.1363
 70  4.693         3.4761         2.1585
 71  4.793         3.4975         2.1797
 72  4.893         3.5184         2.1910
 73  4.993         3.5389         2.2013
 74  5.093         3.5591         2.2170
 75  5.193         3.5794         2.2389
 76  5.293         3.5989         2.2411
 77  5.393         3.6176         2.2426
 78  5.493         3.6356         2.2445
 79  5.593         3.6530         2.2465
 80  5.693         3.6698         2.2485
 81  5.793         3.6860         2.2505
 82  5.893         3.7017         2.2524
 83  5.993         3.7169         2.2544
 84  6.093         3.7317         2.2558
 85  6.193         3.7460         2.2572
 86  6.293         3.7600         2.2592
 87  6.393         3.7735         2.2616
 88  6.493         3.7868         2.2634
 89  6.593         3.7997         2.2659
 90  6.693         3.8122         2.2667
 91  6.793         3.8244         2.2665
 92  6.893         3.8371         2.2970
 93  6.993         3.8510         2.3497
 94  7.093         3.8657         2.3888
 95  7.193         3.8807         2.4115
 96  7.293         3.8955         2.4185
 97  7.393         3.9094         2.4087
 98  7.493         3.9221         2.3818
 99  7.593         3.9340         2.3660
100  7.693         3.9457         2.3701
101  7.793         3.9579         2.4001
102  7.893         3.9709         2.4425
103  7.993         3.9819         2.3763
104  8.093         3.9927         2.3863
105  8.193         4.0064         2.4970
106  8.293         4.0194         2.4882
107  8.393         4.0325         2.5061
108  8.493         4.0460         2.5318
109  8.593         4.0597         2.5517
110  8.693         4.0735         2.5696
111  8.793         4.0875         2.5899
112  8.893         4.1019         2.6145
113  8.993         4.1168         2.6431
114  9.093         4.1320         2.6708
115  9.193         4.1478         2.6994
116  9.293         4.1640         2.7269
117  9.393         4.1804         2.7500
118  9.493         4.1979         2.7954
119  9.593         4.2170         2.8512
120  9.693         4.2375         2.9004
121  9.793         4.2590         2.9432
122  9.893         4.2813         2.9795
123  9.993         4.3039         3.0091
124 10.093         4.3264         3.0308
125 10.193         4.3484         3.0417
126 10.293         4.3674         2.9979
127 10.393         4.3882         3.0588
128 10.493         4.4111         3.1226
129 10.593         4.4355         3.1716
130 10.693         4.4608         3.2139
131 10.793         4.4869         3.2524
132 10.893         4.5127         3.2746
133 10.993         4.5378         3.2878
134 11.093         4.5626         3.3067
135 11.193         4.5872         3.3270
136 11.293         4.6115         3.3486
137 11.393         4.6359         3.3717
138 11.493         4.6602         3.3963
139 11.593         4.6846         3.4219
140 11.693         4.7089         3.4455
141 11.793         4.7332         3.4692
142 11.893         4.7575         3.4933
143 11.993         4.7819         3.5180
144 12.093         4.8062         3.5431
145 12.193         4.8307         3.5692
146 12.293         4.8553         3.5971
147 12.393         4.8800         3.6225
148 12.493         4.9046         3.6446
149 12.593         4.9288         3.6632
150 12.693         4.9527         3.6809
151 12.793         4.9764         3.7012
152 12.893         5.0000         3.7242


#AGE= 3.000 BINS=151 Power-law IMF: x=-2.350
# N  sdss_r       Log10(N)       Log10(dN)
  1 -2.182        -0.1024        -0.1024
  2 -2.082         0.2985         0.0786
  3 -1.982         0.3925        -0.3180
  4 -1.882         0.4708        -0.3120
  5 -1.782         0.5398        -0.2931
  6 -1.682         0.6016        -0.2756
  7 -1.582         0.6587        -0.2507
  8 -1.482         0.7122        -0.2243
  9 -1.382         0.7635        -0.1890
 10 -1.282         0.8123        -0.1615
 11 -1.182         0.8592        -0.1309
 12 -1.082         0.9038        -0.1060
 13 -0.982         0.9475        -0.0721
 14 -0.882         0.9900        -0.0399
 15 -0.782         1.0315        -0.0096
 16 -0.682         1.0722         0.0245
 17 -0.582         1.1100         0.0305
 18 -0.482         1.1461         0.0480
 19 -0.382         1.1830         0.0937
 20 -0.282         1.2204         0.1378
 21 -0.182         1.2576         0.1718
 22 -0.082         1.2945         0.2047
 23  0.018         1.3280         0.1991
 24  0.118         1.4488         0.8340
 25  0.218         1.4990         0.5374
 26  0.318         1.5390         0.4834
 27  0.418         1.5733         0.4540
 28  0.518         1.6013         0.3956
 29  0.618         1.6289         0.4191
 30  0.718         1.6572         0.4566
 31  0.818         1.6859         0.4924
 32  0.918         1.7153         0.5315
 33  1.018         1.7455         0.5720
 34  1.118         1.7756         0.6008
 35  1.218         1.8055         0.6299
 36  1.318         1.8358         0.6640
 37  1.418         1.8662         0.6961
 38  1.518         1.8966         0.7261
 39  1.618         1.9269         0.7565
 40  1.718         1.9573         0.7867
 41  1.818         1.9875         0.8149
 42  1.918         2.0177         0.8445
 43  2.018         2.0477         0.8721
 44  2.118         2.0774         0.8973
 45  2.218         2.2144         1.6466
 46  2.318         2.3778         1.8742
 47  2.418         2.4850         1.8251
 48  2.518         2.5824         1.8853
 49  2.618         2.6418         1.7487
 50  2.718         2.6918         1.7275
 51  2.818         2.7240         1.5787
 52  2.918         2.7610         1.6734
 53  3.018         2.8220         1.9392
 54  3.118         2.8769         1.9514
 55  3.218         2.9318         2.0063
 56  3.318         2.9804         2.0058
 57  3.418         3.0258         2.0221
 58  3.518         3.0680         2.0352
 59  3.618         3.1089         2.0621
 60  3.718         3.1494         2.0988
 61  3.818         3.1863         2.0971
 62  3.918         3.2238         2.1412
 63  4.018         3.2537         2.0769
 64  4.118         3.2810         2.0657
 65  4.218         3.3082         2.0912
 66  4.318         3.3347         2.1076
 67  4.418         3.3606         2.1231
 68  4.518         3.3829         2.0819
 69  4.618         3.4080         2.1584
 70  4.718         3.4319         2.1603
 71  4.818         3.4559         2.1871
 72  4.918         3.4794         2.1996
 73  5.018         3.5022         2.2118
 74  5.118         3.5247         2.2283
 75  5.218         3.5471         2.2475
 76  5.318         3.5690         2.2600
 77  5.418         3.5900         2.2641
 78  5.518         3.6099         2.2630
 79  5.618         3.6291         2.2651
 80  5.718         3.6476         2.2675
 81  5.818         3.6655         2.2698
 82  5.918         3.6827         2.2723
 83  6.018         3.6993         2.2744
 84  6.118         3.7155         2.2774
 85  6.218         3.7311         2.2806
 86  6.318         3.7464         2.2837
 87  6.418         3.7612         2.2875
 88  6.518         3.7757         2.2908
 89  6.618         3.7898         2.2952
 90  6.718         3.8035         2.2972
 91  6.818         3.8171         2.3039
 92  6.918         3.8311         2.3340
 93  7.018         3.8459         2.3717
 94  7.118         3.8611         2.3953
 95  7.218         3.8760         2.4045
 96  7.318         3.8902         2.3988
 97  7.418         3.9034         2.3797
 98  7.518         3.9160         2.3705
 99  7.618         3.9284         2.3786
100  7.718         3.9411         2.4020
101  7.818         3.9540         2.4184
102  7.918         3.9663         2.4118
103  8.018         3.9789         2.4355
104  8.118         3.9929         2.4942
105  8.218         4.0066         2.4983
106  8.318         4.0201         2.5087
107  8.418         4.0341         2.5343
108  8.518         4.0484         2.5572
109  8.618         4.0628         2.5762
110  8.718         4.0773         2.5946
111  8.818         4.0920         2.6156
112  8.918         4.1072         2.6431
113  9.018         4.1229         2.6718
114  9.118         4.1390         2.7014
115  9.218         4.1555         2.7265
116  9.318         4.1733         2.7782
117  9.418         4.1932         2.8432
118  9.518         4.2142         2.8881
119  9.618         4.2353         2.9108
120  9.718         4.2569         2.9426
121  9.818         4.2793         2.9820
122  9.918         4.3018         3.0052
123 10.018         4.3236         3.0126
124 10.118         4.3439         3.0030
125 10.218         4.3653         3.0471
126 10.318         4.3859         3.0533
127 10.418         4.4082         3.1072
128 10.518         4.4318         3.1541
129 10.618         4.4569         3.2063
130 10.718         4.4824         3.2389
131 10.818         4.5084         3.2721
132 10.918         4.5341         3.2943
133 11.018         4.5592         3.3085
134 11.118         4.5839         3.3261
135 11.218         4.6083         3.3462
136 11.318         4.6327         3.3692
137 11.418         4.6571         3.3950
138 11.518         4.6815         3.4201
139 11.618         4.7060         3.4438
140 11.718         4.7304         3.4681
141 11.818         4.7548         3.4930
142 11.918         4.7793         3.5186
143 12.018         4.8039         3.5450
144 12.118         4.8288         3.5736
145 12.218         4.8537         3.6010
146 12.318         4.8787         3.6255
147 12.418         4.9034         3.6471
148 12.518         4.9279         3.6658
149 12.618         4.9520         3.6852
150 12.718         4.9760         3.7067
151 12.818         5.0000         3.7300


#AGE= 4.000 BINS=150 Power-law IMF: x=-2.350
# N  sdss_r       Log10(N)       Log10(dN)
  1 -2.007        -0.1959        -0.1959
  2 -1.907         0.0101        -0.4127
  3 -1.807         0.1402        -0.4467
  4 -1.707         0.2433        -0.4316
  5 -1.607         0.3303        -0.4112
  6 -1.507         0.4055        -0.3932
  7 -1.407         0.4725        -0.3723
  8 -1.307         0.5357        -0.3326
  9 -1.207         0.5938        -0.3082
 10 -1.107         0.6492        -0.2728
 11 -1.007         0.7008        -0.2496
 12 -0.907         0.7505        -0.2155
 13 -0.807         0.7983        -0.1841
 14 -0.707         0.8440        -0.1562
 15 -0.607         0.8886        -0.1221
 16 -0.507         0.9311        -0.0996
 17 -0.407         0.9705        -0.0910
 18 -0.307         1.0090        -0.0621
 19 -0.207         1.0489        -0.0078
 20 -0.107         1.0880         0.0233
 21 -0.007         1.1266         0.0560
 22  0.093         1.1641         0.0820
 23  0.193         1.3048         0.7468
 24  0.293         1.3374         0.1958
 25  0.393         1.3695         0.2229
 26  0.493         1.4105         0.3647
 27  0.593         1.4457         0.3380
 28  0.693         1.4739         0.2713
 29  0.793         1.5016         0.2924
 30  0.893         1.5306         0.3409
 31  0.993         1.5597         0.3709
 32  1.093         1.5893         0.4091
 33  1.193         1.6194         0.4453
 34  1.293         1.6498         0.4796
 35  1.393         1.6804         0.5133
 36  1.493         1.7114         0.5486
 37  1.593         1.7426         0.5842
 38  1.693         1.7742         0.6209
 39  1.793         1.8062         0.6564
 40  1.893         1.8384         0.6933
 41  1.993         1.8713         0.7342
 42  2.093         1.9052         0.7806
 43  2.193         1.9397         0.8222
 44  2.293         1.9749         0.8670
 45  2.393         2.0098         0.8969
 46  2.493         2.0454         0.9419
 47  2.593         2.3043         1.9567
 48  2.693         2.4391         1.8651
 49  2.793         2.5520         1.9117
 50  2.893         2.6120         1.7229
 51  2.993         2.6767         1.8182
 52  3.093         2.7410         1.8796
 53  3.193         2.7961         1.8721
 54  3.293         2.8391         1.8134
 55  3.393         2.8809         1.8435
 56  3.493         2.9240         1.8994
 57  3.593         2.9754         2.0230
 58  3.693         3.0326         2.1242
 59  3.793         3.0721         2.0109
 60  3.893         3.1066         1.9892
 61  3.993         3.1397         2.0059
 62  4.093         3.1720         2.0269
 63  4.193         3.2022         2.0303
 64  4.293         3.2309         2.0362
 65  4.393         3.2590         2.0558
 66  4.493         3.2883         2.1031
 67  4.593         3.3160         2.1075
 68  4.693         3.3440         2.1385
 69  4.793         3.3711         2.1533
 70  4.893         3.3974         2.1659
 71  4.993         3.4230         2.1811
 72  5.093         3.4483         2.2010
 73  5.193         3.4732         2.2189
 74  5.293         3.4974         2.2308
 75  5.393         3.5205         2.2352
 76  5.493         3.5426         2.2384
 77  5.593         3.5637         2.2404
 78  5.693         3.5841         2.2449
 79  5.793         3.6038         2.2515
 80  5.893         3.6230         2.2574
 81  5.993         3.6414         2.2594
 82  6.093         3.6592         2.2633
 83  6.193         3.6765         2.2683
 84  6.293         3.6933         2.2728
 85  6.393         3.7096         2.2761
 86  6.493         3.7255         2.2821
 87  6.593         3.7412         2.2918
 88  6.693         3.7567         2.3007
 89  6.793         3.7720         2.3120
 90  6.893         3.7874         2.3270
 91  6.993         3.8024         2.3356
 92  7.093         3.8170         2.3356
 93  7.193         3.8309         2.3298
 94  7.293         3.8444         2.3297
 95  7.393         3.8577         2.3375
 96  7.493         3.8709         2.3454
 97  7.593         3.8839         2.3543
 98  7.693         3.8969         2.3651
 99  7.793         3.9100         2.3831
100  7.893         3.9239         2.4236
101  7.993         3.9382         2.4472
102  8.093         3.9525         2.4654
103  8.193         3.9669         2.4778
104  8.293         3.9810         2.4879
105  8.393         3.9956         2.5130
106  8.493         4.0104         2.5365
107  8.593         4.0254         2.5558
108  8.693         4.0405         2.5733
109  8.793         4.0558         2.5948
110  8.893         4.0714         2.6210
111  8.993         4.0876         2.6495
112  9.093         4.1042         2.6788
113  9.193         4.1213         2.7072
114  9.293         4.1390         2.7418
115  9.393         4.1586         2.8026
116  9.493         4.1797         2.8564
117  9.593         4.2016         2.8935
118  9.693         4.2235         2.9147
119  9.793         4.2465         2.9584
120  9.893         4.2701         2.9936
121  9.993         4.2931         3.0062
122 10.093         4.3145         2.9955
123 10.193         4.3366         3.0328
124 10.293         4.3585         3.0513
125 10.393         4.3815         3.0937
126 10.493         4.4054         3.1334
127 10.593         4.4305         3.1805
128 10.693         4.4563         3.2174
129 10.793         4.4825         3.2502
130 10.893         4.5081         3.2657
131 10.993         4.5333         3.2830
132 11.093         4.5581         3.3039
133 11.193         4.5829         3.3262
134 11.293         4.6074         3.3466
135 11.393         4.6318         3.3688
136 11.493         4.6561         3.3931
137 11.593         4.6806         3.4195
138 11.693         4.7052         3.4454
139 11.793         4.7298         3.4707
140 11.893         4.7544         3.4961
141 11.993         4.7791         3.5214
142 12.093         4.8038         3.5468
143 12.193         4.8286         3.5730
144 12.293         4.8536         3.6012
145 12.393         4.8786         3.6265
146 12.493         4.9035         3.6484
147 12.593         4.9279         3.6668
148 12.693         4.9521         3.6852
149 12.793         4.9761         3.7061
150 12.893         5.0000         3.7292


#AGE= 5.000 BINS=149 Power-law IMF: x=-2.350
# N  sdss_r       Log10(N)       Log10(dN)
  1 -1.917        -0.1972        -0.1972
  2 -1.817         0.3991         0.2722
  3 -1.717         0.4551        -0.4620
  4 -1.617         0.5071        -0.4402
  5 -1.517         0.5558        -0.4187
  6 -1.417         0.6016        -0.3984
  7 -1.317         0.6454        -0.3723
  8 -1.217         0.6874        -0.3478
  9 -1.117         0.7287        -0.3139
 10 -1.017         0.7690        -0.2833
 11 -0.917         0.8086        -0.2516
 12 -0.817         0.8473        -0.2211
 13 -0.717         0.8852        -0.1932
 14 -0.617         0.9227        -0.1593
 15 -0.517         0.9601        -0.1238
 16 -0.417         0.9960        -0.1044
 17 -0.317         1.0300        -0.0933
 18 -0.217         1.0636        -0.0639
 19 -0.117         1.0985        -0.0140
 20 -0.017         1.1333         0.0202
 21  0.083         1.1680         0.0531
 22  0.183         1.2022         0.0810
 23  0.283         1.3350         0.7557
 24  0.383         1.3687         0.2424
 25  0.483         1.3984         0.2186
 26  0.583         1.4459         0.4613
 27  0.683         1.4777         0.3264
 28  0.783         1.5023         0.2421
 29  0.883         1.5264         0.2586
 30  0.983         1.5527         0.3230
 31  1.083         1.5805         0.3721
 32  1.183         1.6086         0.4059
 33  1.283         1.6372         0.4414
 34  1.383         1.6661         0.4745
 35  1.483         1.6953         0.5088
 36  1.583         1.7252         0.5487
 37  1.683         1.7552         0.5797
 38  1.783         1.7858         0.6176
 39  1.883         1.8168         0.6558
 40  1.983         1.8486         0.6974
 41  2.083         1.8814         0.7423
 42  2.183         1.9151         0.7893
 43  2.283         1.9525         0.8681
 44  2.383         1.9909         0.9187
 45  2.483         2.0282         0.9438
 46  2.583         2.0645         0.9688
 47  2.683         2.1005         1.0011
 48  2.783         2.2562         1.7352
 49  2.883         2.4368         1.9685
 50  2.983         2.5409         1.8695
 51  3.083         2.6076         1.7608
 52  3.183         2.6670         1.7742
 53  3.283         2.7295         1.8565
 54  3.383         2.7861         1.8734
 55  3.483         2.8415         1.9198
 56  3.583         2.8932         1.9434
 57  3.683         2.9390         1.9390
 58  3.783         2.9833         1.9700
 59  3.883         3.0266         2.0040
 60  3.983         3.0653         1.9953
 61  4.083         3.1010         1.9984
 62  4.183         3.1318         1.9671
 63  4.283         3.1656         2.0402
 64  4.383         3.1984         2.0604
 65  4.483         3.2293         2.0657
 66  4.583         3.2610         2.1086
 67  4.683         3.2917         2.1267
 68  4.783         3.3213         2.1399
 69  4.883         3.3500         2.1550
 70  4.983         3.3781         2.1757
 71  5.083         3.4058         2.1961
 72  5.183         3.4327         2.2119
 73  5.283         3.4586         2.2212
 74  5.383         3.4832         2.2244
 75  5.483         3.5069         2.2312
 76  5.583         3.5296         2.2365
 77  5.683         3.5515         2.2430
 78  5.783         3.5728         2.2522
 79  5.883         3.5934         2.2602
 80  5.983         3.6133         2.2636
 81  6.083         3.6324         2.2679
 82  6.183         3.6510         2.2728
 83  6.283         3.6691         2.2789
 84  6.383         3.6866         2.2848
 85  6.483         3.7038         2.2914
 86  6.583         3.7204         2.2964
 87  6.683         3.7367         2.3006
 88  6.783         3.7524         2.3044
 89  6.883         3.7677         2.3057
 90  6.983         3.7824         2.3066
 91  7.083         3.7969         2.3120
 92  7.183         3.8111         2.3184
 93  7.283         3.8250         2.3247
 94  7.383         3.8387         2.3292
 95  7.483         3.8521         2.3367
 96  7.583         3.8660         2.3614
 97  7.683         3.8801         2.3853
 98  7.783         3.8944         2.4046
 99  7.883         3.9089         2.4247
100  7.983         3.9236         2.4461
101  8.083         3.9384         2.4650
102  8.183         3.9533         2.4791
103  8.283         3.9679         2.4885
104  8.383         3.9829         2.5146
105  8.483         3.9983         2.5383
106  8.583         4.0137         2.5574
107  8.683         4.0293         2.5757
108  8.783         4.0450         2.5964
109  8.883         4.0612         2.6232
110  8.983         4.0777         2.6513
111  9.083         4.0948         2.6808
112  9.183         4.1123         2.7079
113  9.283         4.1306         2.7471
114  9.383         4.1504         2.7994
115  9.483         4.1711         2.8395
116  9.583         4.1920         2.8639
117  9.683         4.2127         2.8807
118  9.783         4.2337         2.9073
119  9.883         4.2556         2.9480
120  9.983         4.2794         3.0049
121 10.083         4.3060         3.0809
122 10.183         4.3321         3.0967
123 10.283         4.3555         3.0771
124 10.383         4.3792         3.1026
125 10.483         4.4036         3.1411
126 10.583         4.4290         3.1835
127 10.683         4.4551         3.2224
128 10.783         4.4812         3.2470
129 10.883         4.5072         3.2703
130 10.983         4.5324         3.2847
131 11.083         4.5571         3.2994
132 11.183         4.5817         3.3214
133 11.283         4.6062         3.3461
134 11.383         4.6306         3.3690
135 11.483         4.6551         3.3932
136 11.583         4.6796         3.4187
137 11.683         4.7042         3.4445
138 11.783         4.7288         3.4700
139 11.883         4.7534         3.4956
140 11.983         4.7782         3.5212
141 12.083         4.8029         3.5469
142 12.183         4.8278         3.5739
143 12.283         4.8529         3.6024
144 12.383         4.8781         3.6277
145 12.483         4.9030         3.6496
146 12.583         4.9276         3.6681
147 12.683         4.9518         3.6870
148 12.783         4.9759         3.7082
149 12.883         5.0000         3.7314


#AGE= 6.000 BINS=148 Power-law IMF: x=-2.350
# N  sdss_r       Log10(N)       Log10(dN)
  1 -1.886        -0.2156        -0.2156
  2 -1.786         0.1155        -0.1574
  3 -1.686         0.2080        -0.5092
  4 -1.586         0.2912        -0.4673
  5 -1.486         0.3635        -0.4505
  6 -1.386         0.4293        -0.4229
  7 -1.286         0.4889        -0.4031
  8 -1.186         0.5451        -0.3708
  9 -1.086         0.5979        -0.3436
 10 -0.986         0.6485        -0.3103
 11 -0.886         0.6969        -0.2801
 12 -0.786         0.7436        -0.2479
 13 -0.686         0.7883        -0.2210
 14 -0.586         0.8321        -0.1861
 15 -0.486         0.8749        -0.1531
 16 -0.386         0.9166        -0.1211
 17 -0.286         0.9561        -0.1053
 18 -0.186         0.9934        -0.0906
 19 -0.086         1.0307        -0.0538
 20  0.014         1.0692        -0.0023
 21  0.114         1.1070         0.0274
 22  0.214         1.1437         0.0533
 23  0.314         1.1818         0.1058
 24  0.414         1.3198         0.7548
 25  0.514         1.3517         0.2022
 26  0.614         1.3873         0.2826
 27  0.714         1.4338         0.4410
 28  0.814         1.4595         0.2189
 29  0.914         1.4834         0.2109
 30  1.014         1.5097         0.2793
 31  1.114         1.5383         0.3429
 32  1.214         1.5674         0.3783
 33  1.314         1.5966         0.4096
 34  1.414         1.6259         0.4415
 35  1.514         1.6558         0.4785
 36  1.614         1.6859         0.5115
 37  1.714         1.7164         0.5473
 38  1.814         1.7473         0.5838
 39  1.914         1.7783         0.6171
 40  2.014         1.8099         0.6559
 41  2.114         1.8424         0.7010
 42  2.214         1.8762         0.7503
 43  2.314         1.9124         0.8151
 44  2.414         1.9513         0.8837
 45  2.514         1.9888         0.9065
 46  2.614         2.0251         0.9298
 47  2.714         2.0602         0.9502
 48  2.814         2.0946         0.9764
 49  2.914         2.1297         1.0199
 50  3.014         2.3649         1.9862
 51  3.114         2.5034         1.9398
 52  3.214         2.5751         1.7577
 53  3.314         2.6400         1.7820
 54  3.414         2.7000         1.8111
 55  3.514         2.7571         1.8472
 56  3.614         2.8115         1.8822
 57  3.714         2.8663         1.9408
 58  3.814         2.9188         1.9751
 59  3.914         2.9682         1.9996
 60  4.014         3.0146         2.0201
 61  4.114         3.0567         2.0224
 62  4.214         3.0957         2.0292
 63  4.314         3.1277         1.9800
 64  4.414         3.1648         2.0774
 65  4.514         3.2005         2.0980
 66  4.614         3.2348         2.1157
 67  4.714         3.2678         2.1314
 68  4.814         3.2997         2.1496
 69  4.914         3.3308         2.1711
 70  5.014         3.3614         2.1935
 71  5.114         3.3909         2.2093
 72  5.214         3.4193         2.2197
 73  5.314         3.4462         2.2248
 74  5.414         3.4719         2.2315
 75  5.514         3.4967         2.2410
 76  5.614         3.5205         2.2480
 77  5.714         3.5438         2.2605
 78  5.814         3.5663         2.2712
 79  5.914         3.5881         2.2767
 80  6.014         3.6089         2.2785
 81  6.114         3.6289         2.2822
 82  6.214         3.6482         2.2880
 83  6.314         3.6670         2.2930
 84  6.414         3.6852         2.2979
 85  6.514         3.7028         2.3034
 86  6.614         3.7199         2.3067
 87  6.714         3.7365         2.3087
 88  6.814         3.7525         2.3110
 89  6.914         3.7680         2.3123
 90  7.014         3.7831         2.3179
 91  7.114         3.7979         2.3244
 92  7.214         3.8126         2.3326
 93  7.314         3.8270         2.3401
 94  7.414         3.8413         2.3540
 95  7.514         3.8558         2.3712
 96  7.614         3.8704         2.3887
 97  7.714         3.8851         2.4070
 98  7.814         3.8999         2.4267
 99  7.914         3.9150         2.4475
100  8.014         3.9302         2.4684
101  8.114         3.9456         2.4855
102  8.214         3.9608         2.4982
103  8.314         3.9761         2.5142
104  8.414         3.9917         2.5404
105  8.514         4.0076         2.5622
106  8.614         4.0235         2.5810
107  8.714         4.0396         2.5987
108  8.814         4.0559         2.6223
109  8.914         4.0726         2.6501
110  9.014         4.0898         2.6804
111  9.114         4.1087         2.7365
112  9.214         4.1226         2.6228
113  9.314         4.1358         2.6101
114  9.414         4.1531         2.7451
115  9.514         4.1739         2.8437
116  9.614         4.1974         2.9191
117  9.714         4.2227         2.9749
118  9.814         4.2485         3.0098
119  9.914         4.2734         3.0197
120 10.014         4.2986         3.0490
121 10.114         4.3258         3.1098
122 10.214         4.3521         3.1201
123 10.314         4.3765         3.1149
124 10.414         4.4010         3.1400
125 10.514         4.4263         3.1794
126 10.614         4.4525         3.2191
127 10.714         4.4789         3.2510
128 10.814         4.5051         3.2724
129 10.914         4.5309         3.2915
130 11.014         4.5561         3.3063
131 11.114         4.5806         3.3205
132 11.214         4.6051         3.3439
133 11.314         4.6296         3.3687
134 11.414         4.6540         3.3927
135 11.514         4.6785         3.4176
136 11.614         4.7030         3.4425
137 11.714         4.7276         3.4674
138 11.814         4.7522         3.4928
139 11.914         4.7768         3.5189
140 12.014         4.8016         3.5457
141 12.114         4.8266         3.5749
142 12.214         4.8519         3.6031
143 12.314         4.8771         3.6283
144 12.414         4.9021         3.6503
145 12.514         4.9268         3.6696
146 12.614         4.9513         3.6905
147 12.714         4.9757         3.7127
148 12.814         5.0000         3.7360


#AGE= 7.000 BINS=149 Power-law IMF: x=-2.350
# N  sdss_r       Log10(N)       Log10(dN)
  1 -1.771        -0.3246        -0.3246
  2 -1.671         0.2010         0.0472
  3 -1.571         0.2681        -0.5761
  4 -1.471         0.3309        -0.5400
  5 -1.371         0.3872        -0.5276
  6 -1.271         0.4408        -0.4948
  7 -1.171         0.4905        -0.4754
  8 -1.071         0.5387        -0.4393
  9 -0.971         0.5850        -0.4102
 10 -0.871         0.6298        -0.3791
 11 -0.771         0.6730        -0.3513
 12 -0.671         0.7153        -0.3170
 13 -0.571         0.7565        -0.2865
 14 -0.471         0.7968        -0.2555
 15 -0.371         0.8367        -0.2204
 16 -0.271         0.8757        -0.1906
 17 -0.171         0.9124        -0.1788
 18 -0.071         0.9477        -0.1597
 19  0.029         0.9840        -0.1115
 20  0.129         1.0204        -0.0749
 21  0.229         1.0567        -0.0394
 22  0.329         1.0907        -0.0315
 23  0.429         1.1652         0.3627
 24  0.529         1.2631         0.5679
 25  0.629         1.2930         0.1164
 26  0.729         1.3403         0.3534
 27  0.829         1.3750         0.2603
 28  0.929         1.3987         0.1251
 29  1.029         1.4225         0.1491
 30  1.129         1.4499         0.2366
 31  1.229         1.4778         0.2714
 32  1.329         1.5061         0.3059
 33  1.429         1.5348         0.3410
 34  1.529         1.5638         0.3737
 35  1.629         1.5931         0.4069
 36  1.729         1.6229         0.4459
 37  1.829         1.6530         0.4776
 38  1.929         1.6834         0.5139
 39  2.029         1.7144         0.5530
 40  2.129         1.7462         0.5947
 41  2.229         1.7789         0.6387
 42  2.329         1.8134         0.6965
 43  2.429         1.8509         0.7692
 44  2.529         1.8908         0.8336
 45  2.629         1.9302         0.8685
 46  2.729         1.9681         0.8904
 47  2.829         2.0042         0.9057
 48  2.929         2.0390         0.9262
 49  3.029         2.0744         0.9672
 50  3.129         2.2177         1.6665
 51  3.229         2.4089         1.9606
 52  3.329         2.4852         1.6925
 53  3.429         2.5543         1.7216
 54  3.529         2.6184         1.7556
 55  3.629         2.6784         1.7889
 56  3.729         2.7350         1.8225
 57  3.829         2.7906         1.8702
 58  3.929         2.8465         1.9282
 59  4.029         2.8915         1.8850
 60  4.129         2.9395         1.9594
 61  4.229         2.9845         1.9771
 62  4.329         3.0266         1.9924
 63  4.429         3.0666         2.0106
 64  4.529         3.1046         2.0282
 65  4.629         3.1411         2.0478
 66  4.729         3.1765         2.0694
 67  4.829         3.2109         2.0935
 68  4.929         3.2446         2.1168
 69  5.029         3.2771         2.1356
 70  5.129         3.3082         2.1473
 71  5.229         3.3376         2.1545
 72  5.329         3.3656         2.1610
 73  5.429         3.3926         2.1720
 74  5.529         3.4185         2.1817
 75  5.629         3.4436         2.1935
 76  5.729         3.4680         2.2053
 77  5.829         3.4916         2.2145
 78  5.929         3.5143         2.2205
 79  6.029         3.5359         2.2228
 80  6.129         3.5567         2.2264
 81  6.229         3.5768         2.2315
 82  6.329         3.5962         2.2369
 83  6.429         3.6150         2.2422
 84  6.529         3.6332         2.2474
 85  6.629         3.6508         2.2494
 86  6.729         3.6678         2.2515
 87  6.829         3.6842         2.2527
 88  6.929         3.7002         2.2578
 89  7.029         3.7158         2.2649
 90  7.129         3.7312         2.2740
 91  7.229         3.7465         2.2835
 92  7.329         3.7615         2.2936
 93  7.429         3.7764         2.3041
 94  7.529         3.7914         2.3213
 95  7.629         3.8064         2.3387
 96  7.729         3.8216         2.3581
 97  7.829         3.8370         2.3778
 98  7.929         3.8525         2.3988
 99  8.029         3.8682         2.4189
100  8.129         3.8840         2.4364
101  8.229         3.8996         2.4463
102  8.329         3.9154         2.4690
103  8.429         3.9315         2.4932
104  8.529         3.9479         2.5149
105  8.629         3.9642         2.5319
106  8.729         3.9807         2.5518
107  8.829         3.9975         2.5770
108  8.929         4.0147         2.6047
109  9.029         4.0324         2.6332
110  9.129         4.0511         2.6748
111  9.229         4.0688         2.6713
112  9.329         4.0827         2.5807
113  9.429         4.0995         2.6794
114  9.529         4.1193         2.7675
115  9.629         4.1416         2.8415
116  9.729         4.1661         2.9043
117  9.829         4.1921         2.9569
118  9.929         4.2191         2.9988
119 10.029         4.2463         3.0306
120 10.129         4.2743         3.0690
121 10.229         4.3006         3.0704
122 10.329         4.3261         3.0816
123 10.429         4.3514         3.1034
124 10.529         4.3773         3.1410
125 10.629         4.4039         3.1774
126 10.729         4.4306         3.2062
127 10.829         4.4569         3.2257
128 10.929         4.4826         3.2427
129 11.029         4.5077         3.2568
130 11.129         4.5322         3.2720
131 11.229         4.5567         3.2959
132 11.329         4.5812         3.3189
133 11.429         4.6056         3.3434
134 11.529         4.6301         3.3690
135 11.629         4.6546         3.3942
136 11.729         4.6792         3.4198
137 11.829         4.7038         3.4461
138 11.929         4.7287         3.4736
139 12.029         4.7537         3.5016
140 12.129         4.7788         3.5279
141 12.229         4.8038         3.5526
142 12.329         4.8288         3.5754
143 12.429         4.8537         3.5999
144 12.529         4.8786         3.6245
145 12.629         4.9033         3.6467
146 12.729         4.9278         3.6665
147 12.829         4.9520         3.6859
148 12.929         4.9760         3.7070
149 13.029         5.0000         3.7300


#AGE= 8.000 BINS=148 Power-law IMF: x=-2.350
# N  sdss_r       Log10(N)       Log10(dN)
  1 -1.807        -0.1471        -0.1471
  2 -1.707         0.0879        -0.2911
  3 -1.607         0.2307        -0.3218
  4 -1.507         0.2984        -0.5417
  5 -1.407         0.3580        -0.5340
  6 -1.307         0.4129        -0.5124
  7 -1.207         0.4653        -0.4796
  8 -1.107         0.5137        -0.4626
  9 -1.007         0.5612        -0.4240
 10 -0.907         0.6065        -0.3971
 11 -0.807         0.6506        -0.3651
 12 -0.707         0.6933        -0.3356
 13 -0.607         0.7352        -0.3002
 14 -0.507         0.7761        -0.2703
 15 -0.407         0.8166        -0.2339
 16 -0.307         0.8558        -0.2079
 17 -0.207         0.8946        -0.1739
 18 -0.107         0.9307        -0.1679
 19 -0.007         0.9663        -0.1371
 20  0.093         1.0027        -0.0928
 21  0.193         1.0393        -0.0531
 22  0.293         1.0754        -0.0230
 23  0.393         1.1110         0.0075
 24  0.493         1.1957         0.4443
 25  0.593         1.2811         0.5326
 26  0.693         1.3130         0.1629
 27  0.793         1.3586         0.3576
 28  0.893         1.3938         0.2846
 29  0.993         1.4191         0.1717
 30  1.093         1.4446         0.2003
 31  1.193         1.4724         0.2659
 32  1.293         1.5006         0.2985
 33  1.393         1.5292         0.3338
 34  1.493         1.5580         0.3658
 35  1.593         1.5872         0.4004
 36  1.693         1.6168         0.4352
 37  1.793         1.6468         0.4710
 38  1.893         1.6771         0.5054
 39  1.993         1.7077         0.5401
 40  2.093         1.7390         0.5814
 41  2.193         1.7709         0.6216
 42  2.293         1.8037         0.6652
 43  2.393         1.8384         0.7242
 44  2.493         1.8764         0.7995
 45  2.593         1.9171         0.8681
 46  2.693         1.9570         0.9012
 47  2.793         1.9952         0.9198
 48  2.893         2.0313         0.9334
 49  2.993         2.0662         0.9538
 50  3.093         2.1009         0.9867
 51  3.193         2.1387         1.0597
 52  3.293         2.3755         1.9989
 53  3.393         2.4689         1.7556
 54  3.493         2.5444         1.7475
 55  3.593         2.6122         1.7724
 56  3.693         2.6752         1.8052
 57  3.793         2.7343         1.8390
 58  3.893         2.7894         1.8659
 59  3.993         2.8425         1.9032
 60  4.093         2.8956         1.9567
 61  4.193         2.9472         1.9962
 62  4.293         2.9941         2.0048
 63  4.393         3.0374         2.0144
 64  4.493         3.0785         2.0338
 65  4.593         3.1179         2.0569
 66  4.693         3.1562         2.0816
 67  4.793         3.1935         2.1091
 68  4.893         3.2297         2.1331
 69  4.993         3.2645         2.1510
 70  5.093         3.2975         2.1617
 71  5.193         3.3287         2.1695
 72  5.293         3.3584         2.1783
 73  5.393         3.3870         2.1913
 74  5.493         3.4146         2.2042
 75  5.593         3.4412         2.2153
 76  5.693         3.4670         2.2279
 77  5.793         3.4919         2.2372
 78  5.893         3.5158         2.2448
 79  5.993         3.5386         2.2471
 80  6.093         3.5604         2.2511
 81  6.193         3.5815         2.2578
 82  6.293         3.6019         2.2627
 83  6.393         3.6216         2.2686
 84  6.493         3.6407         2.2737
 85  6.593         3.6590         2.2765
 86  6.693         3.6768         2.2790
 87  6.793         3.6939         2.2814
 88  6.893         3.7106         2.2870
 89  6.993         3.7269         2.2939
 90  7.093         3.7430         2.3035
 91  7.193         3.7588         2.3115
 92  7.293         3.7743         2.3188
 93  7.393         3.7897         2.3319
 94  7.493         3.8050         2.3456
 95  7.593         3.8205         2.3636
 96  7.693         3.8360         2.3820
 97  7.793         3.8517         2.4025
 98  7.893         3.8676         2.4232
 99  7.993         3.8837         2.4446
100  8.093         3.8999         2.4623
101  8.193         3.9159         2.4758
102  8.293         3.9320         2.4918
103  8.393         3.9485         2.5191
104  8.493         3.9651         2.5413
105  8.593         3.9819         2.5589
106  8.693         3.9986         2.5773
107  8.793         4.0157         2.6002
108  8.893         4.0331         2.6295
109  8.993         4.0511         2.6579
110  9.093         4.0694         2.6858
111  9.193         4.0887         2.7258
112  9.293         4.1063         2.7050
113  9.393         4.1224         2.6851
114  9.493         4.1413         2.7702
115  9.593         4.1626         2.8430
116  9.693         4.1861         2.9065
117  9.793         4.2112         2.9620
118  9.893         4.2377         3.0098
119  9.993         4.2650         3.0490
120 10.093         4.2931         3.0911
121 10.193         4.3210         3.1137
122 10.293         4.3469         3.1107
123 10.393         4.3729         3.1374
124 10.493         4.3991         3.1667
125 10.593         4.4259         3.2028
126 10.693         4.4529         3.2321
127 10.793         4.4796         3.2550
128 10.893         4.5056         3.2707
129 10.993         4.5310         3.2852
130 11.093         4.5557         3.2988
131 11.193         4.5803         3.3204
132 11.293         4.6047         3.3417
133 11.393         4.6291         3.3669
134 11.493         4.6536         3.3931
135 11.593         4.6782         3.4186
136 11.693         4.7028         3.4438
137 11.793         4.7274         3.4691
138 11.893         4.7521         3.4947
139 11.993         4.7769         3.5206
140 12.093         4.8017         3.5467
141 12.193         4.8267         3.5739
142 12.293         4.8519         3.6030
143 12.393         4.8771         3.6289
144 12.493         4.9022         3.6512
145 12.593         4.9269         3.6701
146 12.693         4.9514         3.6901
147 12.793         4.9757         3.7118
148 12.893         5.0000         3.7350


#AGE= 9.000 BINS=149 Power-law IMF: x=-2.350
# N  sdss_r       Log10(N)       Log10(dN)
  1 -1.739        -0.3214        -0.3214
  2 -1.639         0.0018        -0.2781
  3 -1.539         0.1440        -0.4100
  4 -1.439         0.2151        -0.6057
  5 -1.339         0.2793        -0.5832
  6 -1.239         0.3386        -0.5552
  7 -1.139         0.3927        -0.5383
  8 -1.039         0.4444        -0.5060
  9 -0.939         0.4934        -0.4778
 10 -0.839         0.5411        -0.4424
 11 -0.739         0.5871        -0.4110
 12 -0.639         0.6312        -0.3831
 13 -0.539         0.6744        -0.3497
 14 -0.439         0.7162        -0.3208
 15 -0.339         0.7575        -0.2855
 16 -0.239         0.7980        -0.2521
 17 -0.139         0.8376        -0.2223
 18 -0.039         0.8749        -0.2101
 19  0.061         0.9109        -0.1879
 20  0.161         0.9482        -0.1363
 21  0.261         0.9853        -0.1015
 22  0.361         1.0220        -0.0699
 23  0.461         1.0564        -0.0609
 24  0.561         1.1340         0.3478
 25  0.661         1.2285         0.5194
 26  0.761         1.2595         0.0983
 27  0.861         1.3095         0.3457
 28  0.961         1.3441         0.2283
 29  1.061         1.3696         0.1266
 30  1.161         1.3955         0.1581
 31  1.261         1.4236         0.2199
 32  1.361         1.4522         0.2560
 33  1.461         1.4810         0.2884
 34  1.561         1.5101         0.3219
 35  1.661         1.5395         0.3551
 36  1.761         1.5693         0.3911
 37  1.861         1.5994         0.4259
 38  1.961         1.6300         0.4621
 39  2.061         1.6610         0.4993
 40  2.161         1.6924         0.5357
 41  2.261         1.7245         0.5784
 42  2.361         1.7575         0.6207
 43  2.461         1.7930         0.6888
 44  2.561         1.8323         0.7690
 45  2.661         1.8724         0.8180
 46  2.761         1.9119         0.8508
 47  2.861         1.9499         0.8727
 48  2.961         1.9861         0.8892
 49  3.061         2.0210         0.9096
 50  3.161         2.0556         0.9392
 51  3.261         2.0922         0.9994
 52  3.361         2.1424         1.1811
 53  3.461         2.3832         2.0122
 54  3.561         2.4667         1.7093
 55  3.661         2.5388         1.7238
 56  3.761         2.6049         1.7546
 57  3.861         2.6668         1.7898
 58  3.961         2.7250         1.8237
 59  4.061         2.7805         1.8594
 60  4.161         2.8344         1.9019
 61  4.261         2.8870         1.9441
 62  4.361         2.9355         1.9592
 63  4.461         2.9804         1.9727
 64  4.561         3.0231         1.9945
 65  4.661         3.0643         2.0215
 66  4.761         3.1044         2.0500
 67  4.861         3.1431         2.0735
 68  4.961         3.1800         2.0908
 69  5.061         3.2149         2.1025
 70  5.161         3.2478         2.1111
 71  5.261         3.2792         2.1229
 72  5.361         3.3095         2.1377
 73  5.461         3.3387         2.1520
 74  5.561         3.3669         2.1655
 75  5.661         3.3941         2.1771
 76  5.761         3.4203         2.1868
 77  5.861         3.4453         2.1945
 78  5.961         3.4693         2.1989
 79  6.061         3.4922         2.2026
 80  6.161         3.5143         2.2100
 81  6.261         3.5356         2.2156
 82  6.361         3.5562         2.2220
 83  6.461         3.5761         2.2270
 84  6.561         3.5953         2.2317
 85  6.661         3.6138         2.2340
 86  6.761         3.6317         2.2372
 87  6.861         3.6490         2.2420
 88  6.961         3.6660         2.2500
 89  7.061         3.6827         2.2581
 90  7.161         3.6990         2.2657
 91  7.261         3.7150         2.2741
 92  7.361         3.7308         2.2828
 93  7.461         3.7466         2.2994
 94  7.561         3.7624         2.3164
 95  7.661         3.7784         2.3353
 96  7.761         3.7944         2.3546
 97  7.861         3.8106         2.3743
 98  7.961         3.8271         2.3969
 99  8.061         3.8436         2.4162
100  8.161         3.8600         2.4301
101  8.261         3.8765         2.4474
102  8.361         3.8933         2.4708
103  8.461         3.9102         2.4938
104  8.561         3.9273         2.5139
105  8.661         3.9444         2.5312
106  8.761         3.9617         2.5530
107  8.861         3.9793         2.5789
108  8.961         3.9975         2.6101
109  9.061         4.0161         2.6375
110  9.161         4.0351         2.6679
111  9.261         4.0547         2.6998
112  9.361         4.0735         2.6985
113  9.461         4.0921         2.7146
114  9.561         4.1126         2.7775
115  9.661         4.1351         2.8378
116  9.761         4.1593         2.8927
117  9.861         4.1849         2.9436
118  9.961         4.2118         2.9908
119 10.061         4.2399         3.0365
120 10.161         4.2684         3.0711
121 10.261         4.2953         3.0737
122 10.361         4.3221         3.0993
123 10.461         4.3487         3.1219
124 10.561         4.3757         3.1559
125 10.661         4.4029         3.1865
126 10.761         4.4300         3.2115
127 10.861         4.4564         3.2278
128 10.961         4.4821         3.2418
129 11.061         4.5071         3.2541
130 11.161         4.5318         3.2738
131 11.261         4.5562         3.2939
132 11.361         4.5807         3.3199
133 11.461         4.6052         3.3456
134 11.561         4.6298         3.3699
135 11.661         4.6543         3.3932
136 11.761         4.6788         3.4175
137 11.861         4.7033         3.4436
138 11.961         4.7281         3.4717
139 12.061         4.7531         3.5013
140 12.161         4.7783         3.5290
141 12.261         4.8035         3.5541
142 12.361         4.8285         3.5765
143 12.461         4.8534         3.5999
144 12.561         4.8783         3.6240
145 12.661         4.9030         3.6463
146 12.761         4.9275         3.6668
147 12.861         4.9518         3.6871
148 12.961         4.9759         3.7086
149 13.061         5.0000         3.7316


#AGE=10.000 BINS=146 Power-law IMF: x=-2.350
# N  sdss_r       Log10(N)       Log10(dN)
  1 -1.619        -0.3325        -0.3325
  2 -1.519         0.0129        -0.2479
  3 -1.419         0.1271        -0.5087
  4 -1.319         0.2091        -0.5552
  5 -1.219         0.2810        -0.5354
  6 -1.119         0.3477        -0.4991
  7 -1.019         0.4064        -0.4918
  8 -0.919         0.4628        -0.4518
  9 -0.819         0.5165        -0.4175
 10 -0.719         0.5670        -0.3922
 11 -0.619         0.6155        -0.3613
 12 -0.519         0.6624        -0.3266
 13 -0.419         0.7082        -0.2913
 14 -0.319         0.7527        -0.2596
 15 -0.219         0.7958        -0.2286
 16 -0.119         0.8383        -0.1923
 17 -0.019         0.8774        -0.1871
 18  0.081         0.9153        -0.1625
 19  0.181         0.9537        -0.1192
 20  0.281         0.9926        -0.0748
 21  0.381         1.0310        -0.0415
 22  0.481         1.0675        -0.0259
 23  0.581         1.1084         0.0621
 24  0.681         1.2427         0.6677
 25  0.781         1.2757         0.1399
 26  0.881         1.3169         0.2736
 27  0.981         1.3645         0.3801
 28  1.081         1.3926         0.1896
 29  1.181         1.4177         0.1682
 30  1.281         1.4453         0.2345
 31  1.381         1.4743         0.2836
 32  1.481         1.5034         0.3153
 33  1.581         1.5329         0.3504
 34  1.681         1.5626         0.3826
 35  1.781         1.5928         0.4205
 36  1.881         1.6233         0.4542
 37  1.981         1.6541         0.4899
 38  2.081         1.6854         0.5280
 39  2.181         1.7170         0.5625
 40  2.281         1.7493         0.6052
 41  2.381         1.7822         0.6452
 42  2.481         1.8173         0.7068
 43  2.581         1.8558         0.7852
 44  2.681         1.8959         0.8411
 45  2.781         1.9357         0.8777
 46  2.881         1.9743         0.9039
 47  2.981         2.0109         0.9182
 48  3.081         2.0459         0.9353
 49  3.181         2.0799         0.9566
 50  3.281         2.1143         0.9962
 51  3.381         2.1528         1.0811
 52  3.481         2.2429         1.5154
 53  3.581         2.4366         1.9927
 54  3.681         2.5192         1.7579
 55  3.781         2.5917         1.7788
 56  3.881         2.6587         1.8134
 57  3.981         2.7211         1.8478
 58  4.081         2.7791         1.8759
 59  4.181         2.8346         1.9135
 60  4.281         2.8887         1.9577
 61  4.381         2.9413         1.9988
 62  4.481         2.9898         2.0132
 63  4.581         3.0354         2.0337
 64  4.681         3.0791         2.0601
 65  4.781         3.1208         2.0834
 66  4.881         3.1608         2.1047
 67  4.981         3.1985         2.1184
 68  5.081         3.2341         2.1305
 69  5.181         3.2681         2.1439
 70  5.281         3.3006         2.1591
 71  5.381         3.3321         2.1765
 72  5.481         3.3624         2.1920
 73  5.581         3.3916         2.2042
 74  5.681         3.4196         2.2153
 75  5.781         3.4465         2.2243
 76  5.881         3.4721         2.2312
 77  5.981         3.4966         2.2355
 78  6.081         3.5201         2.2411
 79  6.181         3.5428         2.2495
 80  6.281         3.5647         2.2561
 81  6.381         3.5858         2.2620
 82  6.481         3.6062         2.2673
 83  6.581         3.6258         2.2708
 84  6.681         3.6447         2.2747
 85  6.781         3.6630         2.2795
 86  6.881         3.6809         2.2855
 87  6.981         3.6983         2.2921
 88  7.081         3.7153         2.3006
 89  7.181         3.7319         2.3066
 90  7.281         3.7483         2.3154
 91  7.381         3.7645         2.3281
 92  7.481         3.7807         2.3445
 93  7.581         3.7969         2.3625
 94  7.681         3.8133         2.3816
 95  7.781         3.8298         2.4012
 96  7.881         3.8465         2.4213
 97  7.981         3.8633         2.4436
 98  8.081         3.8802         2.4622
 99  8.181         3.8970         2.4758
100  8.281         3.9139         2.4955
101  8.381         3.9311         2.5202
102  8.481         3.9485         2.5422
103  8.581         3.9659         2.5597
104  8.681         3.9833         2.5793
105  8.781         4.0011         2.6031
106  8.881         4.0191         2.6295
107  8.981         4.0377         2.6588
108  9.081         4.0567         2.6874
109  9.181         4.0761         2.7178
110  9.281         4.0961         2.7495
111  9.381         4.1166         2.7801
112  9.481         4.1376         2.8122
113  9.581         4.1595         2.8496
114  9.681         4.1822         2.8908
115  9.781         4.2058         2.9283
116  9.881         4.2305         2.9733
117  9.981         4.2570         3.0296
118 10.081         4.2857         3.0914
119 10.181         4.3140         3.1133
120 10.281         4.3415         3.1305
121 10.381         4.3688         3.1530
122 10.481         4.3959         3.1771
123 10.581         4.4233         3.2094
124 10.681         4.4509         3.2404
125 10.781         4.4780         3.2597
126 10.881         4.5045         3.2766
127 10.981         4.5301         3.2881
128 11.081         4.5552         3.3041
129 11.181         4.5798         3.3211
130 11.281         4.6043         3.3444
131 11.381         4.6288         3.3682
132 11.481         4.6533         3.3925
133 11.581         4.6778         3.4169
134 11.681         4.7024         3.4419
135 11.781         4.7269         3.4676
136 11.881         4.7516         3.4934
137 11.981         4.7763         3.5194
138 12.081         4.8011         3.5458
139 12.181         4.8261         3.5731
140 12.281         4.8513         3.6025
141 12.381         4.8766         3.6289
142 12.481         4.9017         3.6517
143 12.581         4.9265         3.6711
144 12.681         4.9511         3.6921
145 12.781         4.9756         3.7143
146 12.881         5.0000         3.7374


#AGE=11.000 BINS=147 Power-law IMF: x=-2.350
# N  sdss_r       Log10(N)       Log10(dN)
  1 -1.580        -0.3678        -0.3678
  2 -1.480        -0.0257        -0.2893
  3 -1.380         0.0904        -0.5394
  4 -1.280         0.1712        -0.5985
  5 -1.180         0.2433        -0.5724
  6 -1.080         0.3075        -0.5545
  7 -0.980         0.3662        -0.5321
  8 -0.880         0.4212        -0.5033
  9 -0.780         0.4751        -0.4580
 10 -0.680         0.5251        -0.4381
 11 -0.580         0.5736        -0.4023
 12 -0.480         0.6204        -0.3708
 13 -0.380         0.6654        -0.3413
 14 -0.280         0.7101        -0.2996
 15 -0.180         0.7531        -0.2725
 16 -0.080         0.7945        -0.2464
 17  0.020         0.8347        -0.2198
 18  0.120         0.8728        -0.2028
 19  0.220         0.9109        -0.1642
 20  0.320         0.9494        -0.1219
 21  0.420         0.9876        -0.0870
 22  0.520         1.0253        -0.0556
 23  0.620         1.0644         0.0002
 24  0.720         1.1964         0.6146
 25  0.820         1.2311         0.1170
 26  0.920         1.2651         0.1424
 27  1.020         1.3194         0.3891
 28  1.120         1.3505         0.1907
 29  1.220         1.3754         0.1215
 30  1.320         1.4017         0.1709
 31  1.420         1.4306         0.2389
 32  1.520         1.4599         0.2747
 33  1.620         1.4895         0.3076
 34  1.720         1.5194         0.3434
 35  1.820         1.5497         0.3781
 36  1.920         1.5804         0.4145
 37  2.020         1.6112         0.4458
 38  2.120         1.6426         0.4864
 39  2.220         1.6743         0.5220
 40  2.320         1.7066         0.5612
 41  2.420         1.7394         0.6013
 42  2.520         1.7741         0.6604
 43  2.620         1.8122         0.7364
 44  2.720         1.8528         0.8027
 45  2.820         1.8927         0.8368
 46  2.920         1.9310         0.8571
 47  3.020         1.9674         0.8723
 48  3.120         2.0020         0.8867
 49  3.220         2.0354         0.9046
 50  3.320         2.0689         0.9392
 51  3.420         2.1047         1.0037
 52  3.520         2.1517         1.1626
 53  3.620         2.3414         1.8901
 54  3.720         2.4386         1.7408
 55  3.820         2.5170         1.7353
 56  3.920         2.5877         1.7641
 57  4.020         2.6531         1.7987
 58  4.120         2.7142         1.8326
 59  4.220         2.7717         1.8653
 60  4.320         2.8276         1.9096
 61  4.420         2.8828         1.9594
 62  4.520         2.9346         1.9857
 63  4.620         2.9825         2.0011
 64  4.720         3.0275         2.0206
 65  4.820         3.0700         2.0398
 66  4.920         3.1102         2.0564
 67  5.020         3.1482         2.0715
 68  5.120         3.1845         2.0883
 69  5.220         3.2192         2.1053
 70  5.320         3.2528         2.1245
 71  5.420         3.2853         2.1426
 72  5.520         3.3164         2.1556
 73  5.620         3.3461         2.1676
 74  5.720         3.3746         2.1775
 75  5.820         3.4019         2.1856
 76  5.920         3.4279         2.1920
 77  6.020         3.4527         2.1970
 78  6.120         3.4766         2.2060
 79  6.220         3.4997         2.2136
 80  6.320         3.5219         2.2197
 81  6.420         3.5433         2.2263
 82  6.520         3.5640         2.2310
 83  6.620         3.5839         2.2347
 84  6.720         3.6031         2.2395
 85  6.820         3.6218         2.2453
 86  6.920         3.6399         2.2519
 87  7.020         3.6576         2.2597
 88  7.120         3.6749         2.2665
 89  7.220         3.6918         2.2735
 90  7.320         3.7085         2.2832
 91  7.420         3.7251         2.2991
 92  7.520         3.7417         2.3164
 93  7.620         3.7584         2.3348
 94  7.720         3.7752         2.3540
 95  7.820         3.7921         2.3747
 96  7.920         3.8092         2.3966
 97  8.020         3.8265         2.4171
 98  8.120         3.8437         2.4331
 99  8.220         3.8609         2.4497
100  8.320         3.8782         2.4715
101  8.420         3.8959         2.4961
102  8.520         3.9136         2.5162
103  8.620         3.9314         2.5347
104  8.720         3.9492         2.5533
105  8.820         3.9674         2.5805
106  8.920         3.9860         2.6088
107  9.020         4.0051         2.6377
108  9.120         4.0245         2.6655
109  9.220         4.0445         2.6969
110  9.320         4.0650         2.7290
111  9.420         4.0860         2.7599
112  9.520         4.1076         2.7940
113  9.620         4.1301         2.8332
114  9.720         4.1536         2.8747
115  9.820         4.1780         2.9152
116  9.920         4.2036         2.9627
117 10.020         4.2311         3.0180
118 10.120         4.2602         3.0720
119 10.220         4.2881         3.0824
120 10.320         4.3163         3.1153
121 10.420         4.3439         3.1321
122 10.520         4.3715         3.1621
123 10.620         4.3994         3.1924
124 10.720         4.4270         3.2164
125 10.820         4.4542         3.2371
126 10.920         4.4804         3.2483
127 11.020         4.5059         3.2627
128 11.120         4.5309         3.2778
129 11.220         4.5556         3.2985
130 11.320         4.5801         3.3199
131 11.420         4.6047         3.3450
132 11.520         4.6293         3.3701
133 11.620         4.6538         3.3938
134 11.720         4.6783         3.4164
135 11.820         4.7027         3.4410
136 11.920         4.7273         3.4685
137 12.020         4.7522         3.4981
138 12.120         4.7773         3.5264
139 12.220         4.8024         3.5522
140 12.320         4.8275         3.5757
141 12.420         4.8525         3.6010
142 12.520         4.8775         3.6260
143 12.620         4.9025         3.6485
144 12.720         4.9271         3.6687
145 12.820         4.9515         3.6893
146 12.920         4.9758         3.7111
147 13.020         5.0000         3.7341


#AGE=12.000 BINS=145 Power-law IMF: x=-2.350
# N  sdss_r       Log10(N)       Log10(dN)
  1 -1.592        -0.3279        -0.3279
  2 -1.492         0.0298        -0.2211
  3 -1.392         0.1584        -0.4328
  4 -1.292         0.2563        -0.4387
  5 -1.192         0.3184        -0.5571
  6 -1.092         0.3770        -0.5222
  7 -0.992         0.4308        -0.5028
  8 -0.892         0.4823        -0.4685
  9 -0.792         0.5315        -0.4391
 10 -0.692         0.5789        -0.4065
 11 -0.592         0.6242        -0.3800
 12 -0.492         0.6685        -0.3444
 13 -0.392         0.7117        -0.3124
 14 -0.292         0.7538        -0.2802
 15 -0.192         0.7947        -0.2522
 16 -0.092         0.8354        -0.2134
 17  0.008         0.8742        -0.1933
 18  0.108         0.9116        -0.1716
 19  0.208         0.9487        -0.1390
 20  0.308         0.9858        -0.1001
 21  0.408         1.0230        -0.0635
 22  0.508         1.0598        -0.0305
 23  0.608         1.0931        -0.0380
 24  0.708         1.2168         0.6109
 25  0.808         1.2622         0.2590
 26  0.908         1.2940         0.1429
 27  1.008         1.3350         0.2895
 28  1.108         1.3849         0.4209
 29  1.208         1.4108         0.1737
 30  1.308         1.4355         0.1777
 31  1.408         1.4626         0.2439
 32  1.508         1.4914         0.2993
 33  1.608         1.5208         0.3358
 34  1.708         1.5504         0.3689
 35  1.808         1.5802         0.4024
 36  1.908         1.6107         0.4416
 37  2.008         1.6412         0.4726
 38  2.108         1.6722         0.5112
 39  2.208         1.7037         0.5478
 40  2.308         1.7355         0.5839
 41  2.408         1.7678         0.6243
 42  2.508         1.8012         0.6706
 43  2.608         1.8365         0.7289
 44  2.708         1.8766         0.8219
 45  2.808         1.9172         0.8672
 46  2.908         1.9563         0.8914
 47  3.008         1.9934         0.9067
 48  3.108         2.0286         0.9203
 49  3.208         2.0623         0.9356
 50  3.308         2.0952         0.9572
 51  3.408         2.1286         0.9979
 52  3.508         2.1650         1.0703
 53  3.608         2.2155         1.2565
 54  3.708         2.3912         1.9133
 55  3.808         2.4889         1.7931
 56  3.908         2.5686         1.7931
 57  4.008         2.6404         1.8231
 58  4.108         2.7071         1.8609
 59  4.208         2.7696         1.8964
 60  4.308         2.8285         1.9318
 61  4.408         2.8856         1.9763
 62  4.508         2.9414         2.0231
 63  4.608         2.9930         2.0420
 64  4.708         3.0403         2.0540
 65  4.808         3.0843         2.0679
 66  4.908         3.1259         2.0864
 67  5.008         3.1654         2.1049
 68  5.108         3.2032         2.1240
 69  5.208         3.2396         2.1448
 70  5.308         3.2748         2.1668
 71  5.408         3.3087         2.1843
 72  5.508         3.3411         2.1968
 73  5.608         3.3720         2.2089
 74  5.708         3.4015         2.2191
 75  5.808         3.4297         2.2283
 76  5.908         3.4566         2.2355
 77  6.008         3.4823         2.2413
 78  6.108         3.5071         2.2506
 79  6.208         3.5309         2.2595
 80  6.308         3.5539         2.2652
 81  6.408         3.5760         2.2728
 82  6.508         3.5973         2.2774
 83  6.608         3.6179         2.2818
 84  6.708         3.6377         2.2869
 85  6.808         3.6569         2.2931
 86  6.908         3.6755         2.2995
 87  7.008         3.6938         2.3075
 88  7.108         3.7115         2.3140
 89  7.208         3.7288         2.3203
 90  7.308         3.7458         2.3307
 91  7.408         3.7628         2.3469
 92  7.508         3.7798         2.3645
 93  7.608         3.7969         2.3828
 94  7.708         3.8141         2.4020
 95  7.808         3.8313         2.4221
 96  7.908         3.8488         2.4447
 97  8.008         3.8664         2.4654
 98  8.108         3.8840         2.4830
 99  8.208         3.9015         2.4979
100  8.308         3.9192         2.5216
101  8.408         3.9372         2.5444
102  8.508         3.9552         2.5652
103  8.608         3.9733         2.5839
104  8.708         3.9915         2.6038
105  8.808         4.0100         2.6295
106  8.908         4.0288         2.6575
107  9.008         4.0482         2.6865
108  9.108         4.0678         2.7142
109  9.208         4.0880         2.7454
110  9.308         4.1088         2.7778
111  9.408         4.1301         2.8094
112  9.508         4.1519         2.8432
113  9.608         4.1746         2.8803
114  9.708         4.1979         2.9172
115  9.808         4.2221         2.9551
116  9.908         4.2478         3.0076
117 10.008         4.2759         3.0726
118 10.108         4.3051         3.1181
119 10.208         4.3333         3.1325
120 10.308         4.3623         3.1713
121 10.408         4.3902         3.1841
122 10.508         4.4182         3.2147
123 10.608         4.4463         3.2434
124 10.708         4.4743         3.2692
125 10.808         4.5016         3.2871
126 10.908         4.5282         3.3011
127 11.008         4.5539         3.3139
128 11.108         4.5791         3.3291
129 11.208         4.6038         3.3478
130 11.308         4.6285         3.3704
131 11.408         4.6532         3.3951
132 11.508         4.6777         3.4182
133 11.608         4.7022         3.4406
134 11.708         4.7266         3.4650
135 11.808         4.7512         3.4910
136 11.908         4.7758         3.5166
137 12.008         4.8005         3.5431
138 12.108         4.8253         3.5710
139 12.208         4.8505         3.6010
140 12.308         4.8758         3.6283
141 12.408         4.9010         3.6518
142 12.508         4.9259         3.6724
143 12.608         4.9507         3.6950
144 12.708         4.9754         3.7179
145 12.808         5.0000         3.7409


#AGE=13.000 BINS=146 Power-law IMF: x=-2.350
# N  sdss_r       Log10(N)       Log10(dN)
  1 -1.572        -0.2934        -0.2934
  2 -1.472         0.0041        -0.3004
  3 -1.372         0.1477        -0.4029
  4 -1.272         0.2309        -0.5279
  5 -1.172         0.2974        -0.5503
  6 -1.072         0.3539        -0.5599
  7 -0.972         0.4043        -0.5554
  8 -0.872         0.4534        -0.5181
  9 -0.772         0.5012        -0.4804
 10 -0.672         0.5465        -0.4580
 11 -0.572         0.5922        -0.4083
 12 -0.472         0.6346        -0.3964
 13 -0.372         0.6766        -0.3594
 14 -0.272         0.7187        -0.3150
 15 -0.172         0.7592        -0.2912
 16 -0.072         0.7991        -0.2577
 17  0.028         0.8376        -0.2333
 18  0.128         0.8744        -0.2167
 19  0.228         0.9111        -0.1800
 20  0.328         0.9481        -0.1394
 21  0.428         0.9850        -0.1048
 22  0.528         1.0217        -0.0690
 23  0.628         1.0557        -0.0681
 24  0.728         1.0997         0.0840
 25  0.828         1.2207         0.6066
 26  0.928         1.2538         0.1196
 27  1.028         1.2881         0.1688
 28  1.128         1.3418         0.4072
 29  1.228         1.3733         0.2176
 30  1.328         1.3982         0.1451
 31  1.428         1.4238         0.1810
 32  1.528         1.4523         0.2554
 33  1.628         1.4816         0.2956
 34  1.728         1.5111         0.3289
 35  1.828         1.5409         0.3632
 36  1.928         1.5713         0.4010
 37  2.028         1.6019         0.4346
 38  2.128         1.6328         0.4701
 39  2.228         1.6642         0.5075
 40  2.328         1.6959         0.5425
 41  2.428         1.7281         0.5827
 42  2.528         1.7612         0.6272
 43  2.628         1.7958         0.6797
 44  2.728         1.8348         0.7692
 45  2.828         1.8756         0.8279
 46  2.928         1.9150         0.8530
 47  3.028         1.9525         0.8701
 48  3.128         1.9884         0.8881
 49  3.228         2.0226         0.9016
 50  3.328         2.0557         0.9208
 51  3.428         2.0887         0.9530
 52  3.528         2.1232         1.0063
 53  3.628         2.1640         1.1165
 54  3.728         2.2560         1.5371
 55  3.828         2.4058         1.8707
 56  3.928         2.4951         1.7643
 57  4.028         2.5728         1.7870
 58  4.128         2.6438         1.8226
 59  4.228         2.7101         1.8610
 60  4.328         2.7714         1.8907
 61  4.428         2.8296         1.9278
 62  4.528         2.8855         1.9678
 63  4.628         2.9391         2.0038
 64  4.728         2.9876         2.0111
 65  4.828         3.0324         2.0244
 66  4.928         3.0749         2.0445
 67  5.028         3.1154         2.0649
 68  5.128         3.1543         2.0871
 69  5.228         3.1920         2.1117
 70  5.328         3.2284         2.1338
 71  5.428         3.2631         2.1488
 72  5.528         3.2962         2.1612
 73  5.628         3.3277         2.1726
 74  5.728         3.3577         2.1829
 75  5.828         3.3865         2.1933
 76  5.928         3.4139         2.2003
 77  6.028         3.4401         2.2075
 78  6.128         3.4654         2.2188
 79  6.228         3.4898         2.2269
 80  6.328         3.5132         2.2328
 81  6.428         3.5357         2.2396
 82  6.528         3.5574         2.2446
 83  6.628         3.5783         2.2492
 84  6.728         3.5985         2.2564
 85  6.828         3.6180         2.2612
 86  6.928         3.6371         2.2694
 87  7.028         3.6556         2.2770
 88  7.128         3.6736         2.2815
 89  7.228         3.6912         2.2897
 90  7.328         3.7086         2.3035
 91  7.428         3.7260         2.3202
 92  7.528         3.7434         2.3372
 93  7.628         3.7608         2.3563
 94  7.728         3.7784         2.3754
 95  7.828         3.7960         2.3956
 96  7.928         3.8139         2.4193
 97  8.028         3.8318         2.4392
 98  8.128         3.8497         2.4562
 99  8.228         3.8676         2.4727
100  8.328         3.8857         2.4970
101  8.428         3.9040         2.5200
102  8.528         3.9224         2.5403
103  8.628         3.9408         2.5591
104  8.728         3.9594         2.5802
105  8.828         3.9782         2.6068
106  8.928         3.9975         2.6345
107  9.028         4.0171         2.6629
108  9.128         4.0372         2.6921
109  9.228         4.0578         2.7239
110  9.328         4.0790         2.7560
111  9.428         4.1007         2.7881
112  9.528         4.1230         2.8233
113  9.628         4.1462         2.8619
114  9.728         4.1701         2.8994
115  9.828         4.1951         2.9422
116  9.928         4.2215         2.9930
117 10.028         4.2495         3.0452
118 10.128         4.2787         3.0906
119 10.228         4.3071         3.1097
120 10.328         4.3365         3.1525
121 10.428         4.3648         3.1645
122 10.528         4.3933         3.1951
123 10.628         4.4217         3.2231
124 10.728         4.4497         3.2457
125 10.828         4.4771         3.2644
126 10.928         4.5037         3.2763
127 11.028         4.5294         3.2889
128 11.128         4.5546         3.3056
129 11.228         4.5795         3.3251
130 11.328         4.6041         3.3463
131 11.428         4.6288         3.3703
132 11.528         4.6534         3.3948
133 11.628         4.6779         3.4177
134 11.728         4.7023         3.4396
135 11.828         4.7267         3.4647
136 11.928         4.7514         3.4933
137 12.028         4.7763         3.5216
138 12.128         4.8012         3.5484
139 12.228         4.8262         3.5738
140 12.328         4.8514         3.6013
141 12.428         4.8766         3.6277
142 12.528         4.9016         3.6508
143 12.628         4.9265         3.6711
144 12.728         4.9511         3.6925
145 12.828         4.9756         3.7148
146 12.928         5.0000         3.7377
